Name: Natrojarosite NaFe_3^3+(SO_4)_2(OH)_6
Type: Mineral
Class: Sulfates
Subclass: 
Particle Size: 125-500um
Sample No.: SO-7C
Owner: JPL
Wavelength range: IR
Origin: USA, Utah, Tooele County, Gold Hill
Collected by Ward's
Description: 





Measurement: Hemispherical reflectance
First Column: X
Second Column: Y
X Units:  Wavelength (micrometers)
Y Units:  Reflectance (percent)
First X Value: 15.3853
Last X Value: 2.00032
Number of X Values: 2256
Additional information: so07ca.txt
 
15.3853	0.534358
15.3397	0.347821
15.2945	0.488993
15.2495	0.461644
15.2048	0.627232
15.1603	0.694208
15.1161	0.694064
15.0722	0.577429
15.0285	0.637551
14.9851	0.808383
14.9419	0.858516
14.8989	0.773457
14.8563	0.59901
14.8138	0.647468
14.7716	0.687443
14.7296	0.493429
14.6879	0.39138
14.6464	0.374633
14.6052	0.425809
14.5641	0.606573
14.5233	0.603255
14.4828	0.479129
14.4424	0.367504
14.4023	0.353048
14.3624	0.457068
14.3227	0.607003
14.2833	0.597343
14.244	0.49776
14.205	0.641687
14.1662	0.640082
14.1276	0.436604
14.0892	0.436648
14.051	0.624841
14.0131	0.465509
13.9753	0.317897
13.9377	0.555017
13.9004	0.803449
13.8632	0.845963
13.8262	0.751769
13.7895	0.710773
13.7529	0.840007
13.7165	0.948662
13.6803	1.04303
13.6443	1.05876
13.6085	1.00197
13.5729	0.970582
13.5374	0.925921
13.5022	0.846311
13.4671	0.952708
13.4322	1.1396
13.3975	1.15756
13.363	1.1246
13.3286	1.23919
13.2944	1.28703
13.2604	1.17033
13.2266	1.08684
13.193	1.24592
13.1595	1.47795
13.1262	1.53921
13.093	1.53891
13.06	1.57659
13.0272	1.61813
12.9946	1.67064
12.9621	1.69855
12.9298	1.66866
12.8976	1.77082
12.8656	1.72981
12.8337	1.63367
12.8021	1.604
12.7705	1.68203
12.7391	1.7215
12.7079	1.78877
12.6769	1.85623
12.6459	1.79833
12.6152	1.72252
12.5845	1.71387
12.5541	1.79658
12.5238	1.73778
12.4936	1.57577
12.4635	1.5216
12.4337	1.51774
12.4039	1.50397
12.3743	1.56832
12.3448	1.72595
12.3155	1.70599
12.2863	1.63982
12.2573	1.55492
12.2284	1.62764
12.1996	1.70571
12.171	1.63142
12.1425	1.6922
12.1141	1.73511
12.0859	1.68949
12.0578	1.69801
12.0298	1.80007
12.0019	1.83199
11.9742	1.86079
11.9466	1.94782
11.9192	2.04998
11.8918	2.06984
11.8646	2.12842
11.8375	2.16204
11.8106	2.24591
11.7837	2.28099
11.757	2.21733
11.7304	2.20774
11.7039	2.33536
11.6776	2.36177
11.6513	2.37595
11.6252	2.2899
11.5992	2.29478
11.5733	2.39705
11.5475	2.38624
11.5219	2.31472
11.4963	2.39677
11.4709	2.63199
11.4455	2.73961
11.4203	2.7136
11.3952	2.66326
11.3702	2.65669
11.3454	2.69628
11.3206	2.65384
11.2959	2.65662
11.2714	2.65982
11.2469	2.77373
11.2226	2.90223
11.1983	2.9453
11.1742	2.91286
11.1502	2.97729
11.1263	3.0543
11.1024	3.02072
11.0787	3.16515
11.0551	3.23859
11.0316	3.19519
11.0081	3.1926
10.9848	3.4037
10.9616	3.5804
10.9385	3.58808
10.9154	3.53899
10.8925	3.55068
10.8697	3.71078
10.8469	3.79341
10.8243	3.77004
10.8017	3.93822
10.7793	4.07202
10.7569	4.14658
10.7346	4.2081
10.7125	4.29491
10.6904	4.36099
10.6684	4.47768
10.6465	4.5657
10.6247	4.64401
10.6029	4.71097
10.5813	4.78441
10.5597	4.80411
10.5383	4.80189
10.5169	4.8458
10.4956	4.93286
10.4744	4.9953
10.4533	5.01566
10.4323	4.94979
10.4113	5.004
10.3904	5.10293
10.3697	5.16229
10.349	5.24755
10.3284	5.37426
10.3078	5.44652
10.2874	5.4942
10.267	5.54211
10.2467	5.62074
10.2265	5.61928
10.2064	5.61825
10.1863	5.60691
10.1663	5.50276
10.1464	5.40434
10.1266	5.26292
10.1069	5.11038
10.0872	4.96006
10.0676	4.88553
10.0481	4.82219
10.0287	4.63079
10.0093	4.44396
9.99005	4.26584
9.97084	4.10772
9.95169	3.96964
9.93263	3.95024
9.91364	3.99776
9.89472	3.89449
9.87587	3.89729
9.8571	4.07493
9.83839	4.39142
9.81976	4.68828
9.80119	4.70148
9.78271	4.59933
9.76428	4.5325
9.74592	4.52781
9.72764	4.54421
9.70943	4.44381
9.69128	4.33287
9.6732	4.2103
9.65518	3.87459
9.63724	3.52287
9.61935	3.08561
9.60155	2.65613
9.5838	2.26895
9.56611	1.83152
9.5485	1.50397
9.53094	1.24332
9.51345	1.00753
9.49604	0.994523
9.47867	1.06928
9.46137	1.19142
9.44414	1.20211
9.42697	1.17532
9.40986	1.26717
9.39281	1.58752
9.37583	1.80668
9.35891	1.93161
9.34204	2.11518
9.32524	2.38958
9.3085	2.58554
9.29182	2.742
9.27519	2.85774
9.25863	2.88771
9.24213	2.96898
9.22568	3.1477
9.2093	3.26414
9.19297	3.49848
9.17669	4.11844
9.16048	4.77601
9.14433	5.22245
9.12823	5.41707
9.11218	5.51834
9.0962	5.66121
9.08027	5.78401
9.06439	5.78481
9.04858	5.89195
9.03281	6.03132
9.0171	6.18104
9.00145	6.21281
8.98585	6.17104
8.9703	6.19592
8.9548	6.11141
8.93937	5.88781
8.92398	5.76274
8.90865	5.70582
8.89337	5.3303
8.87814	4.9148
8.86296	4.55567
8.84784	4.20499
8.83277	3.90115
8.81774	3.6749
8.80277	3.46352
8.78786	3.17279
8.77298	2.85993
8.75816	2.64702
8.7434	2.59566
8.72868	2.39458
8.714	2.22131
8.69938	2.05706
8.68481	1.82237
8.67029	1.82339
8.65581	1.82211
8.64139	1.74394
8.62701	1.75255
8.61268	1.61971
8.5984	1.50763
8.58416	1.47248
8.56997	1.39861
8.55583	1.39176
8.54174	1.40594
8.52769	1.42366
8.51368	1.36358
8.49973	1.32569
8.48582	1.32305
8.47195	1.3609
8.45813	1.46902
8.44436	1.45148
8.43062	1.45705
8.41693	1.6827
8.4033	1.72699
8.3897	1.73652
8.37614	1.90599
8.36264	1.94774
8.34917	2.01216
8.33574	2.14048
8.32236	2.23114
8.30903	2.21616
8.29573	2.20773
8.28248	2.19127
8.26927	2.14925
8.2561	2.23514
8.24298	2.23136
8.2299	2.21607
8.21685	2.18412
8.20385	2.00222
8.19089	1.82702
8.17797	1.85677
8.16509	1.91168
8.15225	1.97128
8.13946	1.94614
8.1267	1.81615
8.11398	1.77398
8.10131	1.90053
8.08867	1.94624
8.07606	1.86707
8.0635	1.73104
8.05099	1.72238
8.0385	1.83391
8.02606	1.85318
8.01366	1.85056
8.00129	1.86546
7.98896	1.91105
7.97667	1.98235
7.96442	2.00753
7.9522	2.01949
7.94002	2.04362
7.92788	2.05716
7.91578	2.11106
7.90371	2.1526
7.89168	2.27049
7.87969	2.49163
7.86773	2.57165
7.85581	2.54008
7.84392	2.55667
7.83207	2.74702
7.82026	2.85392
7.80849	2.92207
7.79674	3.05739
7.78503	3.07816
7.77337	3.15459
7.76173	3.31567
7.75012	3.50607
7.73856	3.67632
7.72703	3.74578
7.71553	3.76703
7.70406	3.8059
7.69263	3.90815
7.68123	4.02336
7.66987	4.05885
7.65855	4.03703
7.64725	3.98991
7.63598	4.09079
7.62475	4.13444
7.61356	4.19067
7.60239	4.33163
7.59126	4.3174
7.58017	4.39118
7.5691	4.45686
7.55806	4.40704
7.54707	4.42373
7.5361	4.53005
7.52516	4.59357
7.51425	4.66008
7.50338	4.68518
7.49253	4.69956
7.48172	4.77144
7.47094	4.81929
7.46019	4.85478
7.44947	4.89451
7.43879	4.90699
7.42813	4.91209
7.4175	4.94135
7.4069	4.89829
7.39634	4.83874
7.3858	4.88533
7.37529	5.0115
7.36482	5.11192
7.35437	5.17192
7.34396	5.32373
7.33357	5.40726
7.32321	5.34062
7.31288	5.33333
7.30258	5.37953
7.29231	5.34838
7.28207	5.38932
7.27185	5.45454
7.26167	5.44511
7.25152	5.43575
7.24139	5.50534
7.23129	5.57644
7.22122	5.59047
7.21117	5.56006
7.20116	5.58543
7.19117	5.5979
7.18121	5.6827
7.17128	5.72046
7.16137	5.65629
7.1515	5.58624
7.14164	5.5604
7.13182	5.61694
7.12203	5.63179
7.11225	5.56086
7.10251	5.45292
7.0928	5.41514
7.08311	5.3176
7.07344	5.18853
7.06381	5.09881
7.0542	5.02976
7.04461	4.88305
7.03506	4.75598
7.02552	4.7513
7.01601	4.79852
7.00653	4.83795
6.99708	4.96095
6.98765	5.10953
6.97824	5.17466
6.96886	5.3167
6.95951	5.63181
6.95018	5.77907
6.94087	5.86759
6.9316	6.04665
6.92234	6.21978
6.91311	6.32732
6.90391	6.40348
6.89473	6.52017
6.88557	6.67787
6.87644	6.72463
6.86733	6.89698
6.85824	7.0453
6.84918	7.03396
6.84015	7.04526
6.83114	7.07517
6.82215	7.19787
6.81319	7.26901
6.80424	7.37815
6.79532	7.60007
6.78643	7.74513
6.77756	7.80333
6.76871	7.90758
6.75989	8.07731
6.75109	8.2339
6.74231	8.44027
6.73355	8.70555
6.72482	8.8894
6.71611	9.02392
6.70742	9.12384
6.69875	9.26782
6.69011	9.60906
6.68149	9.88586
6.67289	9.93114
6.66431	9.9858
6.65576	10.084
6.64722	10.3436
6.63871	10.6137
6.63022	10.592
6.62175	10.6386
6.61331	10.7434
6.60488	10.8535
6.59648	11.0257
6.5881	11.0714
6.57974	11.2516
6.5714	11.3297
6.56308	11.2441
6.55478	11.3796
6.54651	11.4181
6.53825	11.2773
6.53001	11.2223
6.5218	11.3699
6.51361	11.3214
6.50544	11.2444
6.49729	11.464
6.48915	11.5099
6.48104	11.3019
6.47295	11.1881
6.46488	11.132
6.45683	11.1312
6.4488	11.2056
6.44079	11.2328
6.4328	11.246
6.42482	11.3237
6.41687	11.5812
6.40894	11.5161
6.40103	11.2301
6.39314	11.215
6.38526	11.1917
6.37741	11.204
6.36957	11.2091
6.36176	11.075
6.35396	11.0335
6.34618	11.1484
6.33843	11.0515
6.33069	10.8553
6.32297	10.7539
6.31527	10.7803
6.30758	10.8495
6.29992	10.9041
6.29227	10.9086
6.28465	10.9168
6.27704	11.0235
6.26945	11.1495
6.26188	11.1504
6.25432	11.1558
6.24679	11.2469
6.23927	11.2902
6.23177	11.4076
6.22429	11.467
6.21683	11.5127
6.20938	11.5352
6.20195	11.4156
6.19454	11.3357
6.18715	11.414
6.17978	11.4015
6.17242	11.2118
6.16508	11.14
6.15776	11.0449
6.15045	10.9016
6.14317	10.79
6.1359	10.5854
6.12864	10.3449
6.12141	10.2655
6.11419	10.3051
6.10699	10.1219
6.0998	10.0239
6.09263	10.158
6.08549	10.2967
6.07835	10.5465
6.07123	10.7894
6.06413	10.9099
6.05705	11.131
6.04998	11.4339
6.04293	11.2771
6.0359	11.0977
6.02888	11.1881
6.02187	11.3469
6.01489	11.502
6.00792	11.5643
6.00096	11.6635
5.99403	11.9698
5.98711	12.2858
5.9802	12.4851
5.97331	12.7368
5.96644	12.9546
5.95958	13.0815
5.95274	13.2798
5.94591	13.4819
5.9391	13.8266
5.9323	13.8743
5.92552	13.8092
5.91876	13.9716
5.91201	14.0816
5.90528	14.3491
5.89856	14.7619
5.89186	14.8106
5.88517	14.9449
5.8785	15.0356
5.87184	14.7705
5.8652	14.7493
5.85857	14.7163
5.85196	14.7472
5.84536	14.8914
5.83878	14.9766
5.83221	15.0183
5.82566	15.2153
5.81912	15.3566
5.81259	15.3027
5.80608	15.3329
5.79959	15.4417
5.79311	15.5658
5.78665	15.626
5.78019	15.7764
5.77376	16.066
5.76734	16.2959
5.76093	16.1133
5.75453	15.9595
5.74815	16.0203
5.74179	16.0273
5.73543	16.0283
5.7291	16.0453
5.72277	16.1272
5.71646	16.2288
5.71017	16.2804
5.70389	16.1939
5.69762	16.1289
5.69136	16.1294
5.68513	16.1683
5.6789	16.3033
5.67268	16.4258
5.66648	16.4212
5.6603	16.4992
5.65413	16.496
5.64797	16.5173
5.64182	16.6537
5.63569	16.6275
5.62957	16.6572
5.62347	16.6702
5.61737	16.6544
5.61129	16.6387
5.60522	16.662
5.59917	16.7089
5.59313	16.7818
5.5871	16.9612
5.58109	17.1401
5.57509	17.2219
5.5691	17.2625
5.56312	17.3272
5.55716	17.4294
5.55121	17.5513
5.54528	17.6558
5.53935	17.7846
5.53344	17.9525
5.52754	18.1846
5.52166	18.3555
5.51578	18.4454
5.50992	18.522
5.50407	18.6427
5.49823	18.797
5.49241	18.9804
5.4866	19.1769
5.4808	19.378
5.47501	19.4485
5.46923	19.625
5.46347	19.8148
5.45772	19.9165
5.45198	20.0067
5.44625	20.1493
5.44054	20.2538
5.43484	20.3877
5.42914	20.5514
5.42347	20.7323
5.4178	20.7622
5.41214	20.762
5.4065	20.8245
5.40087	20.9439
5.39525	21.0189
5.38964	21.0599
5.38404	21.1476
5.37846	21.1997
5.37288	21.2553
5.36732	21.351
5.36177	21.4328
5.35623	21.5078
5.35071	21.628
5.34519	21.6721
5.33968	21.6266
5.33419	21.643
5.32871	21.7147
5.32324	21.7366
5.31778	21.7405
5.31233	21.7412
5.30689	21.7379
5.30147	21.7137
5.29605	21.7404
5.29065	21.7692
5.28525	21.6778
5.27987	21.6581
5.2745	21.6477
5.26914	21.666
5.26379	21.6012
5.25845	21.5206
5.25312	21.4191
5.24781	21.3701
5.2425	21.3019
5.23721	21.1967
5.23192	21.081
5.22665	20.9338
5.22138	20.7573
5.21613	20.728
5.21089	20.591
5.20566	20.3799
5.20044	20.2878
5.19522	20.1349
5.19002	19.8694
5.18483	19.6878
5.17965	19.5418
5.17448	19.2823
5.16933	18.9849
5.16418	18.7006
5.15904	18.4357
5.15391	18.2345
5.14879	17.942
5.14368	17.5802
5.13859	17.2235
5.1335	16.8048
5.12842	16.3228
5.12335	15.8772
5.1183	15.4044
5.11325	14.8727
5.10821	14.2318
5.10318	13.5863
5.09817	12.9837
5.09316	12.4106
5.08816	11.9386
5.08317	11.5413
5.07819	11.0871
5.07322	10.6381
5.06826	10.2363
5.06331	9.72387
5.05837	9.17754
5.05344	8.67129
5.04852	8.14107
5.04361	7.69143
5.03871	7.323
5.03382	6.9602
5.02894	6.72876
5.02406	6.73527
5.0192	6.89434
5.01435	7.07998
5.0095	7.33799
5.00467	7.71462
4.99984	8.18185
4.99502	8.5756
4.99021	8.95074
4.98542	9.31661
4.98063	9.61424
4.97585	9.91591
4.97108	10.04
4.96632	10.0797
4.96156	10.1341
4.95682	10.1378
4.95209	10.1472
4.94736	10.2006
4.94264	10.1013
4.93794	9.93392
4.93324	9.7518
4.92855	9.51335
4.92387	9.15255
4.9192	8.69697
4.91453	8.25394
4.90988	7.78514
4.90524	7.40458
4.9006	7.07472
4.89597	6.74144
4.89135	6.60895
4.88674	6.54973
4.88214	6.57568
4.87755	6.73991
4.87296	6.99038
4.86839	7.30199
4.86382	7.59426
4.85926	7.88193
4.85471	8.09396
4.85017	8.34548
4.84564	8.68533
4.84111	9.02196
4.8366	9.28693
4.83209	9.59762
4.82759	9.93428
4.8231	10.1497
4.81862	10.3467
4.81415	10.5429
4.80968	10.7058
4.80522	10.8037
4.80077	10.8832
4.79633	10.8411
4.7919	10.6754
4.78747	10.6004
4.78306	10.6187
4.77865	10.6566
4.77425	10.8885
4.76986	11.229
4.76547	11.4856
4.7611	11.6548
4.75673	11.9153
4.75237	12.1918
4.74802	12.4105
4.74367	12.5463
4.73934	12.5122
4.73501	12.4384
4.73069	12.3739
4.72638	12.2498
4.72207	12.0382
4.71777	11.958
4.71348	12.0994
4.7092	12.2262
4.70493	12.3086
4.70066	12.4169
4.69641	12.587
4.69216	12.7896
4.68791	13.0399
4.68368	13.2561
4.67945	13.4731
4.67523	13.701
4.67102	13.8891
4.66682	14.0117
4.66262	14.1616
4.65843	14.3303
4.65425	14.4779
4.65007	14.5521
4.64591	14.589
4.64175	14.5545
4.6376	14.6063
4.63345	14.6441
4.62932	14.637
4.62519	14.7676
4.62106	14.8561
4.61695	14.9172
4.61284	14.9986
4.60874	15.1047
4.60465	15.1605
4.60056	15.1318
4.59648	15.2483
4.59241	15.3735
4.58835	15.3722
4.58429	15.3524
4.58024	15.411
4.5762	15.3973
4.57216	15.2905
4.56814	15.2184
4.56411	15.1476
4.5601	15.0154
4.55609	14.9115
4.55209	14.9111
4.5481	15.0407
4.54411	15.2049
4.54013	15.4696
4.53616	15.7452
4.5322	15.9601
4.52824	16.2709
4.52429	16.618
4.52034	16.9572
4.51641	17.2652
4.51247	17.5447
4.50855	17.8491
4.50463	18.0923
4.50072	18.3145
4.49682	18.5201
4.49292	18.6572
4.48903	18.8089
4.48515	18.9002
4.48127	18.9852
4.4774	19.1071
4.47354	19.1845
4.46968	19.3468
4.46584	19.5764
4.46199	19.7433
4.45815	19.9303
4.45432	20.1413
4.4505	20.378
4.44668	20.6365
4.44287	20.8823
4.43907	21.0861
4.43527	21.2771
4.43148	21.4375
4.4277	21.6147
4.42392	21.7215
4.42015	21.8114
4.41638	22.0277
4.41262	22.1077
4.40887	22.0703
4.40513	22.2412
4.40139	22.4588
4.39765	22.5366
4.39393	22.5454
4.39021	22.5809
4.38649	22.7548
4.38278	22.9132
4.37908	22.9919
4.37539	23.0527
4.3717	23.1335
4.36801	23.1926
4.36434	23.212
4.36067	23.2926
4.357	23.3704
4.35335	23.4325
4.34969	23.5355
4.34605	23.5653
4.34241	23.5854
4.33877	23.6339
4.33514	23.6579
4.33152	23.698
4.32791	23.6718
4.3243	23.6304
4.32069	23.6021
4.3171	23.5858
4.31351	23.5658
4.30992	23.5538
4.30634	23.5972
4.30277	23.6388
4.2992	23.6796
4.29564	23.7465
4.29208	23.7954
4.28853	23.7806
4.28499	23.8218
4.28145	23.8925
4.27792	24.0207
4.27439	24.144
4.27087	24.222
4.26735	24.3243
4.26384	24.4996
4.26034	24.7156
4.25684	24.8958
4.25335	24.9414
4.24986	24.9604
4.24638	25.0439
4.24291	25.1719
4.23944	25.2901
4.23598	25.3011
4.23252	25.3702
4.22906	25.5303
4.22562	25.7061
4.22218	25.8139
4.21874	25.902
4.21531	26.0954
4.21189	26.1881
4.20847	26.3195
4.20506	26.4467
4.20165	26.578
4.19825	26.7353
4.19485	26.8615
4.19146	26.8768
4.18807	26.8733
4.18469	26.971
4.18132	27.0159
4.17795	27.0801
4.17458	27.2452
4.17123	27.3096
4.16787	27.3513
4.16453	27.3563
4.16118	27.3805
4.15785	27.4122
4.15451	27.4341
4.15119	27.4609
4.14787	27.5097
4.14455	27.5213
4.14124	27.5521
4.13794	27.5984
4.13464	27.6024
4.13134	27.5701
4.12805	27.6369
4.12477	27.6983
4.12149	27.6943
4.11822	27.6698
4.11495	27.6675
4.11168	27.7019
4.10843	27.731
4.10517	27.7227
4.10192	27.7511
4.09868	27.7445
4.09545	27.7517
4.09221	27.7991
4.08899	27.7561
4.08576	27.6789
4.08255	27.7064
4.07933	27.733
4.07613	27.7298
4.07292	27.7678
4.06973	27.8129
4.06654	27.8104
4.06335	27.7564
4.06017	27.788
4.05699	27.7631
4.05382	27.7155
4.05065	27.747
4.04749	27.7116
4.04433	27.7778
4.04118	27.7918
4.03803	27.6814
4.03489	27.6606
4.03175	27.6887
4.02862	27.7173
4.02549	27.6554
4.02237	27.5377
4.01925	27.5002
4.01614	27.4255
4.01303	27.3385
4.00993	27.2749
4.00683	27.1329
4.00373	26.9673
4.00064	26.9477
3.99756	27.0571
3.99448	27.1172
3.9914	27.2174
3.98833	27.2371
3.98527	27.2118
3.98221	27.2335
3.97915	27.2523
3.9761	27.2928
3.97305	27.3712
3.97001	27.417
3.96697	27.4215
3.96394	27.4474
3.96091	27.3639
3.95789	27.3238
3.95487	27.3611
3.95186	27.3362
3.94885	27.2379
3.94584	27.2299
3.94284	27.222
3.93984	27.1469
3.93685	27.1049
3.93386	27.0865
3.93088	27.1381
3.9279	27.1673
3.92493	27.0342
3.92196	26.8947
3.919	26.8429
3.91604	26.7749
3.91308	26.763
3.91013	26.7865
3.90718	26.7277
3.90424	26.5999
3.9013	26.5476
3.89837	26.5793
3.89544	26.4656
3.89252	26.3199
3.8896	26.3106
3.88668	26.3322
3.88377	26.3465
3.88086	26.2664
3.87796	26.1474
3.87506	26.1423
3.87217	26.061
3.86928	25.9392
3.86639	25.911
3.86351	25.8217
3.86064	25.7445
3.85776	25.7222
3.8549	25.7741
3.85203	25.7666
3.84917	25.6164
3.84631	25.5746
3.84346	25.5196
3.84062	25.4438
3.83777	25.4415
3.83494	25.3675
3.8321	25.2519
3.82927	25.1605
3.82644	25.1062
3.82362	25.1237
3.82081	25.0696
3.81799	24.9968
3.81518	24.9479
3.81238	24.837
3.80958	24.8481
3.80678	24.8025
3.80399	24.7043
3.8012	24.7238
3.79841	24.6891
3.79563	24.5692
3.79286	24.4661
3.79008	24.4475
3.78731	24.319
3.78455	24.1704
3.78179	24.1453
3.77903	24.1401
3.77628	24.0772
3.77353	24.0746
3.77079	24.0639
3.76805	24.0014
3.76531	23.9509
3.76258	23.8532
3.75985	23.8029
3.75713	23.6998
3.7544	23.5684
3.75169	23.4954
3.74898	23.412
3.74627	23.3272
3.74356	23.3695
3.74086	23.2942
3.73816	23.2049
3.73547	23.1233
3.73278	23.0184
3.7301	22.9362
3.72741	22.8546
3.72474	22.809
3.72206	22.8039
3.71939	22.7679
3.71673	22.683
3.71406	22.5825
3.71141	22.5117
3.70875	22.4157
3.7061	22.3711
3.70345	22.2489
3.70081	22.1516
3.69817	22.147
3.69553	22.0674
3.6929	21.9526
3.69027	21.945
3.68765	21.8585
3.68503	21.8814
3.68241	21.8258
3.6798	21.6708
3.67719	21.475
3.67458	21.3532
3.67198	21.3296
3.66938	21.3874
3.66678	21.3126
3.66419	21.139
3.66161	21.0466
3.65902	20.9573
3.65644	20.8886
3.65387	20.8786
3.65129	20.8571
3.64872	20.7033
3.64616	20.6375
3.64359	20.651
3.64103	20.5408
3.63848	20.4711
3.63593	20.508
3.63338	20.4687
3.63084	20.3406
3.6283	20.1907
3.62576	20.1057
3.62322	20.051
3.62069	19.9841
3.61817	19.9078
3.61564	19.8474
3.61312	19.8356
3.61061	19.8067
3.6081	19.743
3.60559	19.7022
3.60308	19.6046
3.60058	19.5645
3.59808	19.5256
3.59558	19.4019
3.59309	19.4139
3.59061	19.3529
3.58812	19.1801
3.58564	19.0483
3.58316	18.9677
3.58069	18.9821
3.57822	18.9141
3.57575	18.8418
3.57328	18.7609
3.57082	18.771
3.56836	18.775
3.56591	18.6745
3.56346	18.581
3.56101	18.4611
3.55857	18.3969
3.55613	18.3582
3.55369	18.3406
3.55126	18.2635
3.54883	18.1859
3.5464	18.1278
3.54397	18.063
3.54155	18.0682
3.53914	18.0198
3.53672	17.9081
3.53431	17.822
3.5319	17.8418
3.5295	17.6997
3.5271	17.534
3.5247	17.5754
3.52231	17.5999
3.51991	17.5662
3.51753	17.514
3.51514	17.4748
3.51276	17.4575
3.51038	17.4163
3.50801	17.3124
3.50563	17.2334
3.50327	17.1533
3.5009	16.9994
3.49854	16.961
3.49618	16.9813
3.49382	16.9591
3.49147	16.8972
3.48912	16.7961
3.48677	16.7383
3.48443	16.7442
3.48209	16.7397
3.47975	16.6628
3.47742	16.6058
3.47509	16.5359
3.47276	16.4644
3.47044	16.4562
