Name: Anglesite PbSO_4
Type: Mineral
Class: Sulfates
Subclass: 
Particle Size: 125-500um
Sample No.: SO-10A
Owner: JPL
Wavelength range: IR
Origin: USA, Arizona, Santa Cruz County, Glove Mine
Collected by JPL
Description: 





Measurement: Hemispherical reflectance
First Column: X
Second Column: Y
X Units:  Wavelength (micrometers)
Y Units:  Reflectance (percent)
First X Value: 15.3853
Last X Value: 2.00032
Number of X Values: 2256
Additional information: so10aa.txt
 
15.3853	2.66109
15.3397	2.64338
15.2945	2.8099
15.2495	3.02748
15.2048	2.91502
15.1603	2.85146
15.1161	2.91702
15.0722	2.86793
15.0285	2.85401
14.9851	2.97551
14.9419	3.11059
14.8989	3.28149
14.8563	3.58522
14.8138	3.90888
14.7716	4.45884
14.7296	4.64833
14.6879	4.2352
14.6464	4.09016
14.6052	3.911
14.5641	3.71923
14.5233	4.04487
14.4828	4.34772
14.4424	4.43423
14.4023	4.58425
14.3624	4.62722
14.3227	4.58689
14.2833	4.59547
14.244	4.80351
14.205	5.00163
14.1662	5.19984
14.1276	5.2838
14.0892	5.29157
14.051	5.25466
14.0131	5.52535
13.9753	5.74321
13.9377	5.60634
13.9004	5.54331
13.8632	5.62358
13.8262	5.74347
13.7895	5.67945
13.7529	5.64418
13.7165	5.65167
13.6803	5.63284
13.6443	5.69868
13.6085	5.52101
13.5729	5.52019
13.5374	5.79208
13.5022	5.92467
13.4671	5.91609
13.4322	5.91284
13.3975	5.98993
13.363	6.11406
13.3286	6.10529
13.2944	6.04256
13.2604	6.20207
13.2266	6.37903
13.193	6.31583
13.1595	6.2861
13.1262	6.38021
13.093	6.46907
13.06	6.38958
13.0272	6.30901
12.9946	6.31732
12.9621	6.4215
12.9298	6.48172
12.8976	6.52594
12.8656	6.46749
12.8337	6.4587
12.8021	6.54591
12.7705	6.52576
12.7391	6.63363
12.7079	6.7802
12.6769	6.67936
12.6459	6.67979
12.6152	6.83428
12.5845	6.95241
12.5541	6.89842
12.5238	6.84759
12.4936	6.86039
12.4635	7.13252
12.4337	7.2303
12.4039	7.14079
12.3743	7.1658
12.3448	7.06138
12.3155	6.97985
12.2863	6.98581
12.2573	7.06493
12.2284	7.14481
12.1996	7.24628
12.171	7.20071
12.1425	6.99353
12.1141	6.94827
12.0859	7.058
12.0578	7.19959
12.0298	7.26978
12.0019	7.35546
11.9742	7.34058
11.9466	7.50467
11.9192	7.68995
11.8918	7.63967
11.8646	7.4841
11.8375	7.16404
11.8106	6.8813
11.7837	6.81662
11.757	6.81183
11.7304	6.6853
11.7039	6.64096
11.6776	6.67458
11.6513	6.81558
11.6252	6.84123
11.5992	6.72062
11.5733	6.51227
11.5475	6.4496
11.5219	6.38695
11.4963	6.30376
11.4709	6.231
11.4455	6.11622
11.4203	6.15842
11.3952	6.27704
11.3702	6.23643
11.3454	6.12988
11.3206	6.00857
11.2959	5.98086
11.2714	6.00707
11.2469	5.91569
11.2226	5.91123
11.1983	5.84593
11.1742	5.79167
11.1502	5.74776
11.1263	5.76572
11.1024	5.82787
11.0787	5.81739
11.0551	5.73687
11.0316	5.72009
11.0081	5.86345
10.9848	5.98353
10.9616	5.92626
10.9385	5.87907
10.9154	5.79011
10.8925	5.72159
10.8697	5.7825
10.8469	5.71086
10.8243	5.76004
10.8017	5.7834
10.7793	5.72238
10.7569	5.78339
10.7346	5.84522
10.7125	5.91448
10.6904	5.95144
10.6684	5.9938
10.6465	5.99224
10.6247	6.03019
10.6029	6.18629
10.5813	6.35165
10.5597	6.37849
10.5383	6.27455
10.5169	6.19949
10.4956	6.26173
10.4744	6.33336
10.4533	6.42509
10.4323	6.46862
10.4113	6.56449
10.3904	6.6912
10.3697	6.80676
10.349	6.92057
10.3284	6.70475
10.3078	6.19207
10.2874	5.87399
10.267	5.96853
10.2467	6.22414
10.2265	6.41056
10.2064	6.46684
10.1863	6.5682
10.1663	6.78063
10.1464	6.90414
10.1266	6.99767
10.1069	7.1193
10.0872	7.2829
10.0676	7.47504
10.0481	7.70884
10.0287	7.83467
10.0093	7.85097
9.99005	7.91607
9.97084	8.09423
9.95169	8.19963
9.93263	8.28082
9.91364	8.56962
9.89472	8.7197
9.87587	8.77122
9.8571	8.93421
9.83839	9.18885
9.81976	9.51936
9.80119	9.73412
9.78271	10.0119
9.76428	10.376
9.74592	10.6657
9.72764	10.8357
9.70943	11.0944
9.69128	11.2945
9.6732	11.5724
9.65518	11.85
9.63724	12.0801
9.61935	12.3549
9.60155	12.6651
9.5838	12.8649
9.56611	13.0539
9.5485	13.3536
9.53094	13.6613
9.51345	13.8822
9.49604	13.9739
9.47867	14.1151
9.46137	14.2519
9.44414	14.2957
9.42697	14.3899
9.40986	14.6239
9.39281	14.7724
9.37583	14.6651
9.35891	14.5335
9.34204	14.5554
9.32524	14.484
9.3085	14.3051
9.29182	14.2711
9.27519	14.1969
9.25863	14.0354
9.24213	13.9052
9.22568	13.7356
9.2093	13.492
9.19297	13.436
9.17669	13.4726
9.16048	13.4324
9.14433	13.2774
9.12823	13.0182
9.11218	12.8408
9.0962	12.936
9.08027	12.8151
9.06439	12.5805
9.04858	12.3488
9.03281	12.2291
9.0171	12.057
9.00145	11.8932
8.98585	11.7657
8.9703	11.6799
8.9548	11.6225
8.93937	11.4387
8.92398	11.2933
8.90865	11.205
8.89337	11.0707
8.87814	10.7594
8.86296	10.4509
8.84784	10.2664
8.83277	9.91347
8.81774	9.33497
8.80277	8.98928
8.78786	8.67079
8.77298	8.17434
8.75816	7.70789
8.7434	7.49825
8.72868	7.13029
8.714	6.66282
8.69938	6.32438
8.68481	6.00072
8.67029	5.55241
8.65581	5.35236
8.64139	5.19732
8.62701	5.08713
8.61268	5.15463
8.5984	5.20991
8.58416	5.21528
8.56997	5.17881
8.55583	5.1988
8.54174	5.30165
8.52769	5.42253
8.51368	5.53581
8.49973	5.60167
8.48582	5.77171
8.47195	5.84143
8.45813	5.80746
8.44436	5.86978
8.43062	5.97712
8.41693	6.01477
8.4033	5.99518
8.3897	6.01476
8.37614	5.97423
8.36264	5.93265
8.34917	6.01349
8.33574	6.05067
8.32236	5.94234
8.30903	5.75415
8.29573	5.75644
8.28248	5.77285
8.26927	5.57548
8.2561	5.35602
8.24298	5.18828
8.2299	4.96491
8.21685	4.67597
8.20385	4.50285
8.19089	4.24374
8.17797	3.83648
8.16509	3.51139
8.15225	3.31814
8.13946	3.0835
8.1267	2.87862
8.11398	2.63162
8.10131	2.35467
8.08867	2.17831
8.07606	2.05109
8.0635	1.96409
8.05099	1.95605
8.0385	1.84978
8.02606	1.7137
8.01366	1.73373
8.00129	1.83607
7.98896	1.82646
7.97667	1.74587
7.96442	1.79109
7.9522	1.81565
7.94002	1.84581
7.92788	1.84578
7.91578	1.84368
7.90371	1.85089
7.89168	1.88119
7.87969	1.9511
7.86773	1.95005
7.85581	1.96142
7.84392	2.01497
7.83207	2.09488
7.82026	2.26904
7.80849	2.34943
7.79674	2.27594
7.78503	2.30497
7.77337	2.47745
7.76173	2.56329
7.75012	2.59465
7.73856	2.66794
7.72703	2.7125
7.71553	2.80016
7.70406	2.95406
7.69263	3.00635
7.68123	2.99513
7.66987	3.11834
7.65855	3.25403
7.64725	3.33427
7.63598	3.38815
7.62475	3.55911
7.61356	3.72857
7.60239	3.80086
7.59126	3.97917
7.58017	4.05422
7.5691	3.99077
7.55806	4.0807
7.54707	4.26976
7.5361	4.44395
7.52516	4.5743
7.51425	4.67883
7.50338	4.80594
7.49253	4.94177
7.48172	4.99529
7.47094	5.13334
7.46019	5.332
7.44947	5.50412
7.43879	5.65253
7.42813	5.78209
7.4175	5.97791
7.4069	6.19867
7.39634	6.37762
7.3858	6.61982
7.37529	6.84925
7.36482	7.03113
7.35437	7.28426
7.34396	7.60052
7.33357	7.9194
7.32321	8.27178
7.31288	8.61095
7.30258	8.88276
7.29231	9.21761
7.28207	9.65077
7.27185	10.1275
7.26167	10.5147
7.25152	10.8813
7.24139	11.2202
7.23129	11.6209
7.22122	12.0356
7.21117	12.3434
7.20116	12.5622
7.19117	12.7574
7.18121	12.9757
7.17128	13.1872
7.16137	13.3368
7.1515	13.4775
7.14164	13.5303
7.13182	13.6136
7.12203	13.6986
7.11225	13.7683
7.10251	13.888
7.0928	13.9423
7.08311	14.0012
7.07344	14.1038
7.06381	14.1043
7.0542	14.1213
7.04461	14.048
7.03506	13.8183
7.02552	13.7548
7.01601	13.7223
7.00653	13.7491
6.99708	13.7716
6.98765	13.7724
6.97824	13.724
6.96886	13.7346
6.95951	13.7359
6.95018	13.4646
6.94087	13.254
6.9316	13.1368
6.92234	12.9453
6.91311	12.7193
6.90391	12.4924
6.89473	12.1732
6.88557	11.8869
6.87644	11.7275
6.86733	11.6091
6.85824	11.1942
6.84918	10.5928
6.84015	10.2473
6.83114	10.0936
6.82215	9.73397
6.81319	9.28051
6.80424	8.95995
6.79532	8.78058
6.78643	8.59925
6.77756	8.35823
6.76871	8.16452
6.75989	7.90521
6.75109	7.74442
6.74231	7.6047
6.73355	7.48707
6.72482	7.35718
6.71611	7.37192
6.70742	7.36299
6.69875	7.24891
6.69011	7.25782
6.68149	7.34857
6.67289	7.3672
6.66431	7.46015
6.65576	7.57017
6.64722	7.76032
6.63871	7.98937
6.63022	8.01265
6.62175	8.11234
6.61331	8.26431
6.60488	8.46798
6.59648	8.78381
6.5881	9.03973
6.57974	9.227
6.5714	9.50901
6.56308	9.64657
6.55478	9.73923
6.54651	9.89301
6.53825	10.0974
6.53001	10.2444
6.5218	10.4556
6.51361	10.5526
6.50544	10.6689
6.49729	10.9922
6.48915	11.0976
6.48104	10.9773
6.47295	11.0099
6.46488	10.9805
6.45683	10.886
6.4488	10.8463
6.44079	10.7067
6.4328	10.5202
6.42482	10.2517
6.41687	10.032
6.40894	9.53759
6.40103	8.95378
6.39314	8.65281
6.38526	8.46381
6.37741	8.36563
6.36957	8.33727
6.36176	8.19951
6.35396	8.23469
6.34618	8.36612
6.33843	8.33116
6.33069	8.37054
6.32297	8.57179
6.31527	8.85849
6.30758	9.20248
6.29992	9.44384
6.29227	9.66519
6.28465	9.99444
6.27704	10.3891
6.26945	10.6711
6.26188	10.9998
6.25432	11.3116
6.24679	11.5774
6.23927	11.9211
6.23177	12.287
6.22429	12.622
6.21683	12.9807
6.20938	13.4664
6.20195	14.0051
6.19454	14.449
6.18715	15.0794
6.17978	15.5139
6.17242	15.8879
6.16508	16.403
6.15776	16.8385
6.15045	17.1623
6.14317	17.4722
6.1359	17.6216
6.12864	17.7722
6.12141	18.1211
6.11419	18.5229
6.10699	18.5251
6.0998	18.502
6.09263	18.6388
6.08549	18.8326
6.07835	19.1328
6.07123	19.3954
6.06413	19.4578
6.05705	19.7846
6.04998	20.3737
6.04293	20.2219
6.0359	19.9267
6.02888	20.0035
6.02187	20.2775
6.01489	20.6492
6.00792	20.86
6.00096	21.0794
5.99403	21.4427
5.98711	21.7435
5.9802	21.8596
5.97331	22.1628
5.96644	22.5176
5.95958	22.6009
5.95274	22.8299
5.94591	23.2275
5.9391	23.8887
5.9323	24.1659
5.92552	24.081
5.91876	24.2316
5.91201	24.4716
5.90528	24.7693
5.89856	25.2584
5.89186	25.5297
5.88517	25.9512
5.8785	26.1445
5.87184	25.9326
5.8652	26.1821
5.85857	26.299
5.85196	26.3449
5.84536	26.4087
5.83878	26.5719
5.83221	26.7145
5.82566	26.799
5.81912	26.5396
5.81259	25.9294
5.80608	25.6117
5.79959	25.492
5.79311	25.3666
5.78665	25.3927
5.78019	25.4869
5.77376	25.8172
5.76734	26.2668
5.76093	26.039
5.75453	25.7833
5.74815	25.8839
5.74179	25.8532
5.73543	26.0101
5.7291	26.3197
5.72277	26.797
5.71646	27.5412
5.71017	28.2889
5.70389	28.7159
5.69762	29.0089
5.69136	29.3031
5.68513	29.4867
5.6789	29.7167
5.67268	29.819
5.66648	29.6762
5.6603	29.7097
5.65413	29.704
5.64797	29.7265
5.64182	29.8245
5.63569	29.5894
5.62957	29.3935
5.62347	29.4002
5.61737	29.4426
5.61129	29.404
5.60522	29.34
5.59917	29.3463
5.59313	29.4234
5.5871	29.606
5.58109	29.8513
5.57509	29.9811
5.5691	29.9959
5.56312	30.0983
5.55716	30.2321
5.55121	30.3225
5.54528	30.2656
5.53935	30.287
5.53344	30.3559
5.52754	30.4196
5.52166	30.4265
5.51578	30.4225
5.50992	30.3969
5.50407	30.4704
5.49823	30.5239
5.49241	30.62
5.4866	30.698
5.4808	30.8036
5.47501	30.8176
5.46923	30.8816
5.46347	30.9706
5.45772	30.8249
5.45198	30.7266
5.44625	30.7305
5.44054	30.6823
5.43484	30.5553
5.42914	30.5032
5.42347	30.5246
5.4178	30.3043
5.41214	29.9511
5.4065	29.6437
5.40087	29.3562
5.39525	29.0961
5.38964	28.8206
5.38404	28.5561
5.37846	28.2635
5.37288	27.9325
5.36732	27.5688
5.36177	27.2551
5.35623	27.0381
5.35071	26.7261
5.34519	26.2824
5.33968	25.8324
5.33419	25.4655
5.32871	25.0918
5.32324	24.6314
5.31778	24.1648
5.31233	23.8084
5.30689	23.4198
5.30147	23.012
5.29605	22.6162
5.29065	22.245
5.28525	21.8178
5.27987	21.4073
5.2745	21.0791
5.26914	20.8808
5.26379	20.6274
5.25845	20.2729
5.25312	20.0155
5.24781	19.6903
5.2425	19.2722
5.23721	18.8549
5.23192	18.3074
5.22665	17.7733
5.22138	17.2212
5.21613	16.5549
5.21089	15.7858
5.20566	15.0603
5.20044	14.2593
5.19522	13.3882
5.19002	12.6685
5.18483	11.9612
5.17965	11.2833
5.17448	10.7317
5.16933	10.3378
5.16418	10.1699
5.15904	10.1625
5.15391	10.2802
5.14879	10.4588
5.14368	10.6894
5.13859	10.8891
5.1335	11.0041
5.12842	10.9275
5.12335	10.7413
5.1183	10.4126
5.11325	10.0616
5.10821	9.7614
5.10318	9.4375
5.09817	9.12154
5.09316	8.84404
5.08816	8.58902
5.08317	8.37335
5.07819	8.15707
5.07322	7.99658
5.06826	7.84527
5.06331	7.63282
5.05837	7.5103
5.05344	7.37013
5.04852	7.21018
5.04361	7.04728
5.03871	6.81238
5.03382	6.58403
5.02894	6.49352
5.02406	6.39409
5.0192	6.27043
5.01435	6.18425
5.0095	6.20092
5.00467	6.15164
4.99984	6.08355
4.99502	6.01075
4.99021	5.9075
4.98542	5.75953
4.98063	5.65126
4.97585	5.6722
4.97108	5.69349
4.96632	5.64095
4.96156	5.64634
4.95682	5.68752
4.95209	5.69676
4.94736	5.69949
4.94264	5.71059
4.93794	5.71277
4.93324	5.69425
4.92855	5.70602
4.92387	5.71244
4.9192	5.61769
4.91453	5.5836
4.90988	5.61702
4.90524	5.68905
4.9006	5.69661
4.89597	5.65459
4.89135	5.71966
4.88674	5.91408
4.88214	6.06624
4.87755	6.05735
4.87296	6.09339
4.86839	6.17628
4.86382	6.16494
4.85926	6.2197
4.85471	6.31707
4.85017	6.35528
4.84564	6.40764
4.84111	6.59206
4.8366	6.72689
4.83209	6.72078
4.82759	6.76939
4.8231	6.8226
4.81862	6.94699
4.81415	7.00533
4.80968	6.91833
4.80522	6.91973
4.80077	7.02628
4.79633	7.07647
4.7919	7.02754
4.78747	6.96174
4.78306	6.98895
4.77865	7.01162
4.77425	6.9235
4.76986	6.88636
4.76547	6.90257
4.7611	6.84574
4.75673	6.80577
4.75237	6.83483
4.74802	6.79975
4.74367	6.77367
4.73934	6.74473
4.73501	6.74635
4.73069	6.7516
4.72638	6.78282
4.72207	6.89242
4.71777	6.87016
4.71348	6.81366
4.7092	6.76875
4.70493	6.82811
4.70066	6.94487
4.69641	7.0097
4.69216	7.09905
4.68791	7.16318
4.68368	7.21051
4.67945	7.18641
4.67523	7.17549
4.67102	7.22988
4.66682	7.29225
4.66262	7.30858
4.65843	7.36807
4.65425	7.40938
4.65007	7.45781
4.64591	7.49625
4.64175	7.58092
4.6376	7.70841
4.63345	7.84895
4.62932	7.97
4.62519	8.11973
4.62106	8.31317
4.61695	8.46909
4.61284	8.64982
4.60874	8.7918
4.60465	8.91993
4.60056	9.07313
4.59648	9.18202
4.59241	9.30279
4.58835	9.45444
4.58429	9.62429
4.58024	9.74974
4.5762	9.94268
4.57216	10.2285
4.56814	10.4314
4.56411	10.5717
4.5601	10.6475
4.55609	10.7833
4.55209	10.9775
4.5481	11.1022
4.54411	11.2118
4.54013	11.3763
4.53616	11.5213
4.5322	11.6588
4.52824	11.7806
4.52429	11.8582
4.52034	11.9326
4.51641	12.0167
4.51247	12.0906
4.50855	12.1849
4.50463	12.2826
4.50072	12.4192
4.49682	12.571
4.49292	12.6344
4.48903	12.6635
4.48515	12.7686
4.48127	12.8976
4.4774	12.9668
4.47354	13.0721
4.46968	13.2237
4.46584	13.4047
4.46199	13.4418
4.45815	13.5181
4.45432	13.6364
4.4505	13.7224
4.44668	13.7898
4.44287	13.8655
4.43907	14.0132
4.43527	14.1431
4.43148	14.2209
4.4277	14.1932
4.42392	14.187
4.42015	14.2084
4.41638	14.3445
4.41262	14.495
4.40887	14.5374
4.40513	14.5856
4.40139	14.6273
4.39765	14.692
4.39393	14.7514
4.39021	14.7568
4.38649	14.7604
4.38278	14.8206
4.37908	14.8581
4.37539	14.8834
4.3717	14.9165
4.36801	14.9383
4.36434	14.9623
4.36067	14.9145
4.357	14.8687
4.35335	14.8631
4.34969	14.7993
4.34605	14.7675
4.34241	14.7306
4.33877	14.7102
4.33514	14.6561
4.33152	14.6324
4.32791	14.6672
4.3243	14.6586
4.32069	14.5712
4.3171	14.5657
4.31351	14.5535
4.30992	14.5193
4.30634	14.5807
4.30277	14.6205
4.2992	14.6582
4.29564	14.66
4.29208	14.6639
4.28853	14.6522
4.28499	14.7256
4.28145	14.7799
4.27792	14.7965
4.27439	14.8483
4.27087	14.9159
4.26735	14.9879
4.26384	15.0955
4.26034	15.3118
4.25684	15.5112
4.25335	15.6846
4.24986	15.9331
4.24638	16.2449
4.24291	16.5742
4.23944	16.8532
4.23598	17.0661
4.23252	17.3119
4.22906	17.6698
4.22562	18.0551
4.22218	18.3973
4.21874	18.769
4.21531	19.1762
4.21189	19.5702
4.20847	20.0005
4.20506	20.4112
4.20165	20.8352
4.19825	21.2872
4.19485	21.6348
4.19146	21.9912
4.18807	22.3807
4.18469	22.7131
4.18132	23.0194
4.17795	23.3381
4.17458	23.6106
4.17123	23.892
4.16787	24.2831
4.16453	24.5647
4.16118	24.7765
4.15785	25.0646
4.15451	25.3712
4.15119	25.6076
4.14787	25.8178
4.14455	26.0823
4.14124	26.3846
4.13794	26.6386
4.13464	26.8816
4.13134	27.2181
4.12805	27.5757
4.12477	27.8007
4.12149	27.9398
4.11822	28.2046
4.11495	28.4564
4.11168	28.7127
4.10843	28.937
4.10517	29.1688
4.10192	29.4116
4.09868	29.6659
4.09545	29.8274
4.09221	29.9368
4.08899	30.1039
4.08576	30.344
4.08255	30.5526
4.07933	30.7021
4.07613	30.7807
4.07292	30.8827
4.06973	31.0403
4.06654	31.2169
4.06335	31.3342
4.06017	31.4102
4.05699	31.5387
4.05382	31.6143
4.05065	31.6803
4.04749	31.8102
4.04433	31.9121
4.04118	31.9957
4.03803	32.1012
4.03489	32.2292
4.03175	32.4004
4.02862	32.5557
4.02549	32.651
4.02237	32.6915
4.01925	32.8167
4.01614	32.9255
4.01303	33.0112
4.00993	33.0485
4.00683	33.1018
4.00373	33.2
4.00064	33.3033
3.99756	33.3522
3.99448	33.4825
3.9914	33.594
3.98833	33.5914
3.98527	33.5953
3.98221	33.6461
3.97915	33.7346
3.9761	33.8142
3.97305	33.7985
3.97001	33.7968
3.96697	33.9121
3.96394	34.0044
3.96091	33.9447
3.95789	33.9696
3.95487	34.0016
3.95186	34.0499
3.94885	34.1781
3.94584	34.2857
3.94284	34.4519
3.93984	34.5358
3.93685	34.6106
3.93386	34.8556
3.93088	35.0974
3.9279	35.3146
3.92493	35.5148
3.92196	35.7825
3.919	36.0439
3.91604	36.3336
3.91308	36.5961
3.91013	36.7912
3.90718	36.9711
3.90424	37.1116
3.9013	37.307
3.89837	37.5308
3.89544	37.6624
3.89252	37.8038
3.8896	37.9793
3.88668	38.055
3.88377	38.1382
3.88086	38.3447
3.87796	38.5319
3.87506	38.6036
3.87217	38.6135
3.86928	38.6671
3.86639	38.6636
3.86351	38.6515
3.86064	38.7264
3.85776	38.8234
3.8549	38.9028
3.85203	38.8889
3.84917	38.8872
3.84631	38.9754
3.84346	38.9994
3.84062	38.9432
3.83777	38.8941
3.83494	38.8326
3.8321	38.821
3.82927	38.8705
3.82644	38.8397
3.82362	38.7847
3.82081	38.7183
3.81799	38.6514
3.81518	38.592
3.81238	38.5474
3.80958	38.501
3.80678	38.4781
3.80399	38.3677
3.8012	38.2745
3.79841	38.2443
3.79563	38.2184
3.79286	38.1711
3.79008	38.1323
3.78731	38.0191
3.78455	37.9644
3.78179	37.9003
3.77903	37.7703
3.77628	37.6461
3.77353	37.5889
3.77079	37.5189
3.76805	37.3893
3.76531	37.2474
3.76258	37.1412
3.75985	37.0462
3.75713	36.9146
3.7544	36.8045
3.75169	36.7196
3.74898	36.5864
3.74627	36.5029
3.74356	36.4076
3.74086	36.3309
3.73816	36.2344
3.73547	36.1539
3.73278	36.0379
3.7301	35.9533
3.72741	35.9219
3.72474	35.901
3.72206	35.8405
3.71939	35.7009
3.71673	35.5848
3.71406	35.532
3.71141	35.4314
3.70875	35.3848
3.7061	35.3572
3.70345	35.1855
3.70081	34.9941
3.69817	34.9394
3.69553	34.802
3.6929	34.5759
3.69027	34.4443
3.68765	34.388
3.68503	34.3291
3.68241	34.136
3.6798	33.9735
3.67719	33.943
3.67458	33.9188
3.67198	33.8002
3.66938	33.6412
3.66678	33.6028
3.66419	33.5498
3.66161	33.4436
3.65902	33.4382
3.65644	33.3948
3.65387	33.3234
3.65129	33.3242
3.64872	33.2934
3.64616	33.2876
3.64359	33.3298
3.64103	33.334
3.63848	33.279
3.63593	33.2524
3.63338	33.2625
3.63084	33.309
3.6283	33.3801
3.62576	33.433
3.62322	33.4033
3.62069	33.335
3.61817	33.2345
3.61564	33.2097
3.61312	33.2052
3.61061	33.1804
3.6081	33.1835
3.60559	33.1475
3.60308	33.1192
3.60058	33.1497
3.59808	33.1366
3.59558	33.1146
3.59309	33.0611
3.59061	33.0266
3.58812	32.999
3.58564	33.0687
3.58316	33.0521
3.58069	32.968
3.57822	33.0155
3.57575	33.036
3.57328	32.9937
3.57082	32.9781
3.56836	32.9451
3.56591	32.836
3.56346	32.7587
3.56101	32.8273
3.55857	32.8828
3.55613	32.9716
3.55369	32.9867
3.55126	32.844
3.54883	32.7782
3.5464	32.8593
3.54397	32.8765
3.54155	32.8112
3.53914	32.8375
3.53672	32.8532
3.53431	32.7981
3.5319	32.7692
3.5295	32.8488
3.5271	32.8778
3.5247	32.8308
3.52231	32.7761
3.51991	32.7589
3.51753	32.8349
3.51514	32.8554
3.51276	32.9247
3.51038	32.9786
3.50801	32.9845
3.50563	33.0281
3.50327	33.0946
3.5009	33.0367
3.49854	33.0671
3.49618	33.162
3.49382	33.1975
3.49147	33.1963
3.48912	33.2745
3.48677	33.3682
3.48443	33.3925
3.48209	33.4568
3.47975	33.5429
3.47742	33.5466
3.47509	33.4522
3.47276	33.4565
3.47044	33.5844
3.46812	33.6444
3.4658	33.6006
3.46348	33.6634
